Wavelength, Absorbance
380.5,-0.003597958596
381.6,-0.002701091158
382.8,0.001192181679
383.9,-0.002065234148
385.1,-0.001652102896
386.2,-0.00195562334
387.4,-0.0004853279127
388.5,-0.001976255438
389.7,-0.0009575846761
390.8,-9.29E-05
392,0.00229137041
393.1,0.0006159393291
394.3,0.001205820993
395.4,0.0005139956097
396.6,0.00132576012
397.7,0.000307079363
398.9,0.0002176879742
400,-0.0005967750953
401.2,-0.0002888982659
402.3,0.0008457073836
403.5,0.0009652092071
404.6,0.000642260352
405.8,-6.14E-06
406.9,0.0001525967764
408.1,0.0004897010353
409.2,0.0001727847574
410.4,0.0003260222124
411.5,0.0005381529428
412.7,8.25E-05
413.8,-5.31E-05
415,0.0004394079292
416.1,0.0007268614612
417.3,0.001216530145
418.4,0.0009873075229
419.6,0.00137766031
420.7,0.001039351615
421.9,0.001411340187
423,0.0006721450354
424.2,0.0009720601106
425.3,0.0003551160785
426.5,0.0007831670558
427.6,0.00120906791
428.8,0.001662990774
429.9,0.001538135317
431.1,0.0008121885858
432.2,-4.56E-06
433.4,-0.000904021982
434.5,-0.0008524335964
435.7,-0.000686130508
436.8,0.0006939811068
438,0.000887455438
439.1,0.0008772421548
440.3,0.0002917135318
441.4,0.000430357149
442.6,0.0004765519882
443.7,0.0005085562316
444.9,0.001028514086
446,0.001077915566
447.2,0.001765264574
448.3,0.000737035496
449.5,0.0003005313513
450.6,2.78E-05
451.8,-0.0001331908412
452.9,0.0008798265623
454.1,0.001144761225
455.2,0.001455856865
456.4,0.001017658912
457.5,0.0005663812461
458.7,0.0006675627336
459.8,0.001120138003
461,0.001490357626
462.1,0.001655979027
463.3,0.0009569027483
464.4,6.71E-05
465.6,-0.001194888862
466.7,-0.001218752288
467.9,-0.0009920966047
469,-0.0004234699348
470.2,-6.93E-06
471.3,0.0002638646266
472.5,0.0001865680399
473.6,-0.000242933155
474.8,-5.40E-05
475.9,7.46E-05
477.1,4.78E-05
478.2,0.0003986160221
479.4,0.0002522610181
480.5,0.001118745761
481.7,0.0002611484479
482.8,0.0004600658795
484,0.0002609361328
485.1,0.0008068386336
486.3,0.001133449008
487.4,0.001346837878
488.6,0.001046476988
489.7,0.001228946018
490.9,-0.0001133215065
492,-0.0004758009125
493.2,-0.001044386128
494.3,-9.92E-05
495.5,0.0006383980344
496.6,0.0008433474345
497.8,-0.000395074057
498.9,-0.0005254449177
500.1,-0.000858179242
501.2,0.0005664006158
502.4,-0.0002102776192
503.5,-4.99E-05
504.6,-0.001516474338
505.8,-0.001228160042
506.9,-0.001161959744
508.1,0.0003927112037
509.2,0.0003668794444
510.4,0.0009624481112
511.6,-0.0003985443968
512.6,-0.0002912945239
513.7,-0.0009234655306
514.7,-0.0008296251751
515.8,-0.0001368373388
516.9,0.0001750759321
517.9,0.0007591349874
519,0.0001553055975
520.1,-2.28E-05
521.1,5.63E-05
522.2,-4.69E-05
523.3,0.000454740046
524.3,0.0004987057503
525.4,0.0008420527942
526.5,-3.05E-05
527.5,0.0002184154298
528.6,-3.87E-05
529.7,0.0004295128732
530.7,-0.0007179681409
531.8,-0.0007559353581
532.9,-0.0004325568263
533.9,9.00E-05
535,5.15E-05
536.1,-0.0006982343858
537.1,-0.000457188311
538.2,-0.0003171740606
539.2,-0.0001839736219
540.3,-0.0002676886934
541.4,-3.00E-05
542.4,0.0003558272486
543.5,0.000226137999
544.6,0.0001354119908
545.6,-9.85E-05
546.7,0.0002511709293
547.8,0.0001090911645
548.8,0.0001778781579
549.9,3.87E-05
551,6.69E-05
552,0.0002506957376
553.1,0.000179147844
554.2,0.0001078753706
555.2,-0.0004144853843
556.3,-0.0004691451691
557.4,-0.0004977896126
558.4,-0.0003940304959
559.5,-0.0002891610547
560.6,-0.0002572970581
561.6,-0.0003654455288
562.7,5.55E-06
563.7,-0.0001710747713
564.8,-0.0001079955897
565.9,-0.0005167929344
566.9,-0.0004343157168
568,-0.0004145672917
569.1,1.98E-05
570.1,0.0006674022345
571.2,0.001025183612
572.3,0.0006468846345
573.3,0.0004321412604
574.4,6.60E-05
575.5,-5.34E-06
576.5,-0.0001996851362
577.6,-2.68E-05
578.7,0.00019979467
579.7,0.0002848959677
580.8,0.0007136168397
581.9,-0.0001466232936
582.9,-0.0004001746584
584,-0.0005890275566
585.1,0.0006606579779
586.1,0.0007210995644
587.2,0.0008750313161
588.3,0.0007929182829
589.3,0.0006333446895
590.4,7.94E-05
591.5,-0.0002572530017
592.6,-0.0003002554531
593.6,0.0002931026519
594.7,2.03E-05
595.8,-0.0001836727518
596.9,-0.0006909464232
598,-0.0003431385853
599,0.0001101005341
600.1,0.0002929081049
601.2,-7.80E-05
602.3,-0.0007883903178
603.3,-0.0007070608784
604.4,-0.0005904476101
605.5,-0.0004844592934
606.6,-0.0007303787316
607.6,-0.0009423577817
608.7,-0.0002018694106
609.8,-9.58E-05
610.9,-7.43E-05
611.9,-0.0003708771175
613,-0.0004401462775
614.1,-0.0003165482924
615.2,-0.0002936479079
616.2,-0.0004803585631
617.3,-0.0003305993636
618.4,-0.0006530582779
619.5,-9.23E-05
620.6,-5.35E-05
621.6,0.0003685409913
622.7,-0.0002140357295
623.8,-0.0004532442317
624.9,-0.0004444702658
625.9,1.17E-05
627,-8.35E-05
628.1,-0.0003181541124
629.2,-0.0001257304012
630.2,0
631.3,-7.64E-05
632.4,-0.0003252797008
633.5,-3.53E-05
634.5,6.56E-05
635.6,-3.04E-05
636.7,-0.0003426818891
637.8,-0.0005613022066
638.8,-0.0005691232487
639.9,-0.0007355544985
641,-0.0002734802546
642.1,-0.0002579336955
643.1,-0.0003062191785
644.2,-0.0005072572492
645.3,-0.0004189913365
646.4,-2.86E-05
647.5,9.32E-05
648.5,-0.0001291089723
649.6,5.35E-05
650.7,-0.0001884607221
651.8,-0.0002302669988
652.8,-0.0004319641392
653.9,-0.0003041972985
655,-0.000205617248
656.1,-0.0005909500343
657.1,-0.0004956972563
658.2,-0.0003053200795
659.3,-0.0001802096184
660.4,0.0002962369708
661.4,9.80E-05
662.5,0.0005091172754
663.6,-5.62E-05
664.7,0.0003424186235
665.7,0.0001463173422
666.8,5.30E-05
667.9,-0.0003477308556
669,-0.000523053385
670.1,-0.0004302334575
671.1,-0.0001611125889
672.2,-0.0001851671166
673.3,0.0003146304405
674.3,-4.58E-05
675.4,0.0001102731021
676.5,-0.0003469456577
677.6,-3.59E-05
678.6,-6.53E-05
679.7,-0.0001728558588
680.8,-0.0003116863289
681.9,-0.0003380135631
682.9,-0.0004445635149
684,-0.0008661676486
685.1,-0.0007465083202
686.2,-0.0006777764494
687.2,-0.0004577497047
688.3,-0.0008478343018
689.4,-0.0006071490529
690.4,-0.0001196094434
691.5,0.0002601845902
692.6,8.23E-05
693.7,0.0002471237487
694.7,-5.31E-06
695.8,-3.43E-05
696.9,-0.000355504142
698,-6.51E-06
699,-3.90E-05
700.1,8.40E-05
701.2,-0.0002396517073
702.2,-0.0001194655175
703.3,-0.0001566974954
704.4,7.31E-05
705.5,0.0002190336141
706.6,0.0001291508703
707.7,0.0002185065239
708.8,0.0002135317579
709.9,-0.000186119518
711,-0.0003340733114
712.1,-0.0006384790667
713.2,-0.0005143474519
714.3,-0.0005571183144
715.4,-0.0003524253725
716.5,-6.79E-05
717.6,-0.0003960645055
718.8,-0.000423411192
719.9,-0.0006405827471
721,-0.0001641124052
722.1,-0.0004745569434
723.2,-0.0004876172875
724.3,-0.0005763418271
725.4,-0.0001907687828
726.5,-0.0004970030139
727.6,-0.0006270443066
728.7,-0.001005558117
729.8,-0.000525063993
731,-0.000399494672
732.1,-7.39E-05
733.2,-0.0001058412234
734.3,2.61E-05
735.4,0.0004284700388
736.5,0.0008877258551
737.6,0.0009060101156
738.7,0.000455129004
739.8,-0.0002019231943
740.9,-0.0002544900911
742.1,-0.0003145236276
743.2,-0.0004163493749
744.3,-0.0004068691739
745.4,-0.0004925973089
746.5,-0.0005214346463
747.6,-0.0007393054745
748.7,-0.0005551476827
749.8,0.0001107973212
750.9,0.0002878588209
752,0.0001616007745
753.1,-0.000294248945
754.3,-0.0004350191532
755.4,-0.0002987225102
756.5,-0.000460513596
757.6,-0.0002502878379
758.7,0.0003511469684
759.8,0.0002568830742
760.9,-0.000174302716
762,-0.0008626179375
763.1,-0.0005311291211
764.2,-5.09E-05
765.3,0.0001240844497
766.5,0.0003002420551
767.6,-6.40E-05
768.7,-0.0001840212916
769.8,-0.0006606312417
770.9,-0.0003947268514
772,-2.81E-05
773.1,0.0002599620218
774.2,0.0002911996345
775.3,-0.0002461970167
776.4,-0.0004727685337
777.6,-0.0002431136551
778.7,0.0002840016816
779.8,0.0004517804087
780.9,-0.0002441050489
782,-0.0008677800349
783.1,-0.00104503791
784.2,-0.0008601104708
785.3,-0.0002776866975
786.4,-0.000222086138
787.5,1.98E-05
788.6,-4.79E-05
789.8,3.18E-05
790.9,-0.0002849034722
792,-0.0009284694079
793.1,-0.0006873656905
794.2,-0.0007426211245
795.3,-0.0004071624432
796.4,-0.0008308355323
797.5,-0.0004822327295
798.6,-8.06E-05
799.7,-6.66E-05
800.8,1.42E-05
802,-1.40E-05
803.1,-0.0001618232085
804.2,-0.0006972743453
805.3,-0.0007194296021
806.4,-0.0003959792964
807.5,0.0001393391485
808.6,-8.28E-06
809.7,-4.45E-05
810.8,-0.0005106302067
811.9,-0.0009167106469
813.1,-0.0004519771885
814.2,-4.96E-05
815.3,0.0004582163431
816.4,-0.0003322364879
817.5,-0.0004658321333
818.6,-0.0004625919063
819.7,-0.0001596339916
820.8,-0.0003745104891
821.9,-0.0004736204307
823,-0.0003387983085
824.1,-7.50E-05
825.3,0.0004403723443
826.4,0.0003707422127
827.5,0.0006225904131
828.6,0.000261006673
829.7,0.0001810011401
830.8,0.0002490300774
831.9,-0.0001667951738
833,0.0002962269294
834,-1.73E-05
835.1,-0.0001721794817
836.1,-4.89E-05
837.2,-0.0004924292548
838.2,-0.0003836857122
839.3,-0.0007296128444
840.3,-9.63E-05
841.4,-0.0002246264451
842.4,-3.37E-05
843.5,5.09E-05
844.5,-9.38E-05
845.6,-0.0009347429589
846.6,-0.001689122943
847.7,-0.001746928353
848.7,-0.0008821482017
849.8,4.83E-05
850.8,0.001091264007
851.9,0.0003534850897
852.9,-4.81E-05
854,-0.0001243634149
855,0.001012075078
856.1,0.00053520334
857.1,0.0003097834581
858.2,-0.001043421923
859.2,-0.0003969889656
860.3,-0.0008579747252
861.4,2.90E-05
862.4,0.0001176354669
863.5,0.0007554880419
864.5,0.0003595652586
865.6,0.0001621949303
866.6,-0.0006184771271
867.7,-0.0007187431808
868.7,-0.0001068490018
869.8,0.0002408328439
870.8,0.000515956637
871.9,-0.0003834036618
872.9,0.0001733852003
874,0.0008475889873
875,0.001053802691
876.1,0.0003543905622
877.1,-0.0002966567463
878.2,-0.0003647264753
879.2,-0.0009532915544
880.3,-0.001023326342
881.3,-0.0002691139816
882.4,0.0006711600815
883.4,0.001094953787
884.5,0.0007921577593
885.5,0.0005586432731
886.6,0.0008049373606
887.6,-2.51E-05
888.7,0.0008101350766
889.7,0.0001095752107
890.8,0.0001972315167
891.9,-8.09E-05
892.9,0.0002593954102
894,0.0007109076074
895,-0.0003778748203
896.1,-0.0006287071168
897.1,-0.0008602418919
898.2,-0.0007031584079
899.2,-0.001112392924
900.3,-0.0005057726662
901.3,-2.20E-05
902.4,0.0003076030697
903.4,-9.92E-05
904.5,0.0007282347159
905.5,0.00124222045
906.6,0.001696227516
907.6,0.0003509677438
908.7,0.0004834874424
909.7,-0.0002643287361
910.8,9.56E-05
911.8,-0.001178394077
912.9,-0.001090192581
913.9,-1.16E-05
915,0.00152304515
916,0.001582126327
917.1,0.0005270106621
918.1,-0.0001933550607
919.2,0.0009264691367
920.3,0.00170975341
921.3,0.001647019984
922.4,0.0004360638365
923.4,0.0004591215938
924.5,0.0005050870148
925.5,0.0007255221803
926.6,5.41E-05
927.6,-0.0005293040814
928.7,-0.000785249288
929.7,-0.000973923386
930.8,-0.0004639540994
931.8,-0.000328703582
932.9,3.01E-05
933.9,-0.0001776579121
935,-9.69E-05
936,-0.0002114136246
937.1,0.0006403647301
938.1,0.0008368871503
939.2,0.001251238291
940.3,0.0008709918087
941.3,0.0005851152735
942.4,0.0004769245617
943.4,1.51E-05
944.5,0.0009507908382
945.5,0.001466284096
946.6,0.002432378596
947.6,0.001317593838
948.7,0.001244383793
949.7,0.000512465649